confused frame rate
slow film redirects genre films slow cinema
film speed measure photographic films sensitivity light determined sensitometry measured various numerical scales recent system closely related system used describe relationship exposure output image lightness digital cameras
relatively insensitive film correspondingly lower speed index requires exposure light produce image density sensitive film thus commonly termed slow film highly sensitive films correspondingly termed fast films digital film photography reduction exposure corresponding higher sensitivities generally leads reduced image quality coarser film grain higher image noise types short higher sensitivity grainier image ultimately sensitivity limited quantum efficiency film sensor




film container denotes speed 10021° including arithmetic logarithmic components second often dropped making effectively equivalent older speed common film name alludes rating





contents


film speed measurement systems

historical systems

warnerke
hurter driffield
scheiner


weston
general electric

gost


current system
conversion current scales
historic conversion
determining film speed
applying film speed
exposure index


reciprocity
film sensitivity grain

marketing anomalies


digital camera speed exposure index

122322006 standard
measurements calculations

saturationbased speed
noisebased speed
standard output sensitivity
discussion




also
references
reading
external links



film speed measurement systemsedit
historical systemsedit
warnerkeedit
first known practical sensitometer allowed measurements speed photographic materials invented polish engineer leon warnerke1 pseudonym władysław małachowski 1837–1900 1880 among achievements awarded progress medal photographic society great britain 188223 commercialized since 1881
warnerke standard sensitometer consisted frame holding opaque screen array typically numbered gradually pigmented squares brought contact photographic plate timed test exposure phosphorescent tablet excited light burning magnesium ribbon3 speed emulsion expressed degrees warnerke sometimes seen warn corresponding last number visible exposed plate development fixation number represented increase speed typical plate speeds warnerke time
system success proved unreliable1 spectral sensitivity light fading intensity light emitted phosphorescent tablet excitation well high builttolerances3 concept however later built upon 1900 henry chapman jones 1855–1932 development plate tester modified speed system34
hurter driffieldedit
another early practical system measuring sensitivity emulsion hurter driffield originally described 1890 swissborn ferdinand hurter 1844–1898 british vero charles driffield 1848–1915 system speed numbers inversely proportional exposure required example emulsion rated would require times exposure emulsion rated 2500
methods determine sensitivity later modified 1925 regard light source used 1928 regarding light source developer proportional factor—this later variant sometimes called system officially6 accepted standard former soviet union 1928 september 1951 superseded gost 281750
scheineredit
scheinergrade system devised german astronomer julius scheiner 1858–1913 1894 originally method comparing speeds plates used astronomical photography scheiners system rated speed plate least exposure produce visible darkening upon development speed expressed degrees scheiner originally ranging increment corresponded hundredfold increase sensitivity meant increment came close doubling sensitivity57



















206914




displaystyle sqrt191003206914approx



system later extended cover larger ranges practical shortcomings addressed austrian scientist josef maria eder 1855–19441 flemishborn botanist walter hecht 1896–1960 19191920 jointly developed eder–hecht neutral wedge sensitometer measuring emulsion speeds eder–hecht grades still remained difficult manufactures reliably determine film speeds often comparing competing products1 increasing number modified semischeinerbased systems started spread longer followed scheiners original procedures thereby defeated idea comparability18
scheiners system eventually abandoned germany standardized system introduced 1934 various forms continued widespread countries time
dinedit
system officially standard 4512 deutsches institut normung still named deutscher normenausschuß time published january 1934 grew drafts standardized method sensitometry forward deutscher normenausschuß phototechnik8 proposed committee sensitometry deutsche gesellschaft photographische forschung9 since 19301011 presented robert luther de1112 1868–1945 emanuel goldberg12 1881–1970 influential viii international congress photography german internationaler kongreß wissenschaftliche angewandte photographie held dresden august 1931813
system inspired scheiners system1 sensitivities represented base logarithm sensitivity multiplied similar decibels thus increase scheiners system represented hundredfold increase sensitivity difference much closer base logarithm 030103…7


















030103








displaystyle 102030103approx



scheiner system speeds expressed degrees originally sensitivity written fraction tenths example 1810° din14 resultant value represented relative base logarithm speed tenths later abandoned 4512195711 example would written din5 degree symbol finally dropped 4512196110 revision also significant changes definition film speeds order accommodate thenrecent changes american ph251960 standard film speeds blackandwhite negative film effectively would become doubled film previously marked would labeled without emulsion changes
originally meant blackandwhite negative film system later extended regrouped nine parts including 45121197104 blackandwhite negative film 45124197706 color reversal film 45125197710 color negative film
international level german 4512 system effectively superseded 1980s 6197415 2240198216 5800197917 sensitivity written linear logarithmic form 10021° degree symbol standards subsequently adopted well finally latest 4512 revisions replaced corresponding standards 45121199305 6199602 september 2000 45124198508 2240199806 45125199011 5800199806 july 2002
bsiedit




section needs expansion details different standard variants development time applications relation standards help adding august 2013



film speed scale recommended british standards institution almost identical system except number degrees greater numbercitation needed
westonedit
advent system system weston film speed ratings introduced edward faraday weston 1878–1971 father edward weston 1850–1936 britishborn electrical engineer industrialist founder usbased weston electrical instrument corporation18 weston model earliest photoelectric exposure meters august 1932 meter film rating system invented william nelson goodwin jr1920 worked them21 later received howard potts medal contributions engineering
company tested frequently published speed ratings films time weston film speed ratings could since found weston exposure meters sometimes referred film manufactures third parties22 exposure guidelines since manufactures sometimes creative film speeds company went warn users unauthorized uses film ratings weston film ratings booklets23
weston cadet model introduced 1949 direct reading model introduced 1954 master models s1413 introduced 1956 first line exposure meters switch utilize meanwhile established scale instead models used original weston scale 1955 company continued publish weston film ratings 195524 recommended values often differed slightly film speeds found film boxes newer weston values based system converted older weston meters subtracting exposure stop westons recommendation24 vice versa weston film speed ratings could converted westons scale adding amount film rating weston 1955 corresponded ph251954 conversion necessary weston meters manufactured weston film ratings published since 1956 inherent system however changes ph251960 revision taken account comparing newer values
general electricedit
prior establishment scale25 similar weston film speed ratings another manufacturer photoelectric exposure meters general electric developed rating system socalled general electric film values often abbreviated around 1937
film speed values meters published regularly updated general electric film values26 leaflets general electric photo data book27
general electric switched scale 1946 meters manufactured since february 1946 equipped scale labeled exposure index already older meters scales film speed film value models dw48 dw49 well early dw58 gw68 variants replaceable hoods scales available manufacturer2628 company continued publish recommended film values date however aligned scale
asaedit
based earlier research work loyd ancile jones 1884–1954 kodak inspired systems weston film speed ratings24 general electric film values26 american standards association named ansi defined method determine specify film speeds blackandwhite negative films 1943 z38211943 revised 1946 1947 standard grew ph251954 originally values frequently referred american standard speed numbers exposureindex numbers also exposure index
scale linear scale film denoted film speed twice fast film
standard underwent major revision 1960 ph251960 method determine film speed refined previously applied safety factors underexposure abandoned effectively doubling nominal speed many blackandwhite negative films example ilford rated 1960 labeled afterwards without change emulsion similar changes applied system 4512196110 system 13801963 following years
addition established arithmetic speed scale ph251960 also introduced logarithmic grades difference represented full exposure stop therefore doubling film speed grades also printed film boxes life form apex speed value without degree symbol well
ph251960 revised ansi ph251979 without logarithmic speeds later replaced napm it251986 national association photographic manufacturers represented adoption international standard latest issue ansinapm it25 published 1993
standard color negative film introduced ph2271965 string revisions 1971 1976 1979 1981 finally became ansi it2271988 prior withdrawal
color reversal film speeds defined ansi ph2211983 revised 1989 became ansinapm it221 1994 adoption 2240 standard
international level system superseded film speed system 1982 1987 however arithmetic speed scale continued live linear speed value system
gostedit
gost cyrillic гост error lang script cyrl supported code help arithmetic film speed scale defined gost 281745 gost 2817502930 used former soviet union since october 1951citation needed replacing hurter driffield cyrillic numbers29 used since 1928citation needed
gost 281750 similar standard based speed point density base plus opposed asas 0131 gost markings found pre1987 photographic equipment film cameras lightmeters soviet union manufacture32
january 1987 gost scale realigned scale gost 106918433
evolved multiple parts including gost 1069168834 gost 1069158835 became functional january 1991
current system isoedit
film speed standards combined standards since 1974
current international standard measuring speed color negative film 5800200117 first published 1979 revised november 1987 international organization standardization related standards 6199315 first published 1974 2240200316 first published july 1982 revised september 1994 corrected october 2003 define scales speeds blackandwhite negative film color reversal film respectively
determination speeds digital stillcameras described 122322006 first published august 1998 revised april 2006 corrected october 2006
system defines arithmetic logarithmic scale36 arithmetic scale corresponds arithmetic system doubling film sensitivity represented doubling numerical film speed value logarithmic scale corresponds scale adding numerical value constitutes doubling sensitivity example film rated 20024° twice sensitive rated 10021°36
commonly logarithmic speed omitted example denotes 10021°37 logarithmic speeds written standard
conversion current scalesedit
conversion arithmetic speed logarithmic speed given by15




















displaystyle scirc 10log



rounding nearest integer base conversion logarithmic speed arithmetic speed given by38
































displaystyle s10leftscirc 1right10



rounding nearest standard arithmetic speed table

table comparison various film speed scales

apex 1960–
1974–
arithlog°
camera mfrs 2009–
1960–1987
arith
1961–2002

gost 1951–1986
arith
example film stock
nominal speed



080°39













svema micratorto astrum micratorto



122°








163°

















255°













svema astrum


























original kodachrome



810°




polaroid polablue



1011°




kodachrome film



1212°




gevacolor reversal film later agfa diadirect



1613°




agfacolor reversal film



2014°




adox



2515°




agfacolor kodachrome later kodachrome efke



3216°




kodak panatomicx



4017°




kodachrome movie



5018°




fuji velvia ilford plus kodak vision2 5201 movie agfa ct18 efke polaroid type



6419°




kodachrome ektachromex polaroid type



8020°




ilford commercial ortho polaroid type



10021°




kodacolor gold kodak tmax fujichrome provia 100f efke fomapanarista



12522°




ilford kodak plusx svema color



16023°




fujicolor 160cs kodak highspeed ektachrome kodak portra 160nc 160vc



20024°




fujicolor superia agfa scala 200x fomapanarista wittner chrome 200dagfa aviphot chrome



25025°




tasma foto250



32026°




kodak trix professional



40027°




kodak tmax kodak trix ilford fujifilm superia xtra fujichrome provia 400x fomapanarista



50028°




kodak vision3 500t 5219 movie



64029°




polaroid



80030°




fuji 800z fuji instax



100031°

1000

1000
kodak p3200 tmax ilford delta 3200 marketing anomalies



125032°

1250

1000
kodak royalx panchromatic



160033°

1600

1400 1440
fujicolor 1600



200034°

2000

2000




250035°

2500

2000




320036°

3200

2800 2880
konica 3200 polaroid type fujifilm fp3000b



400037°



4000




500038°



4000




640039°

640041

5600




800040°3940








1000041°3940








1250042°39
128004042434445
1250041


speeds greater 10000 assigned officially 2013



1600043°








2000044°




polaroid type



2500045°
256004445







3200046°








4000047°








5000048°
512004445







6400049°








8000050°








10000051°39
1024004445

5140

nikon canon eos1d mark 2009



12500052°








16000053°








20000054°
204800464748



canon eos1d 2011 nikon 2012 pentax 645z 2014



25000055°








32000056°








40000057°
4096004950



nikon sony ilce7s 2014 canon mark 2016



50000058°








64000059°








80000060°








100000061°








125000062°








160000063°








200000064°








250000065°








320000066°
3280000



nikon 2016



400000067°51
4560000



canon me20fsh51 2015


table notes

speeds shown bold apex values actually assigned speed standards respective agencies values calculated extensions assigned speeds using progressions assigned speeds
apex values correspond logarithmic grades found ph251960
arithmetic speeds taken ansi ph2211979 table
arithmetic speeds 3200 taken ansi ph251979 table ansi ph2271979
arithmetic speeds 3200 taken 58001987 table speed scales
arithmetic speeds 10000 taken 122321998 table
122321998 specify speeds greater 10000 however upper limit snoise 10000 given 12500 suggesting envisioned progression 12500 25000 50000 100000 similar 1250 10000 consistent ph212196141 digital cameras nikon canon sony pentax fujifilm apparently chose express greater speeds exact powerof2 progression highest previously realized speed 6400 rather rounding extension existing progression
modern film slrs support automatic film speed range 2515° 500038° dxcoded films 640039° manually without utilizing exposure compensation film speed range support flash smaller typically 1212° 320036° less
booster42 accessory canon pellix 1965 canon 1966 supported film speeds 12800
film speed dial canon 1978 supported speed range 12800 already called film speeds manual43 camera exposure compensation extreme film speeds mutually exclusive
leica 1996 2002 officially supported film speeds 800040° 1000041° 1280042° case 1250042° case utilizing exposure compensation range could extended 080° 10000051° half exposure steps3940
digital camera manufacturers arithmetic speeds 12800 409600 specifications nikon 12800 25600 51200 102400 200944 204800 201247 409600 201449 canon 12800 25600 51200 102400 200945 204800 201146 4000000 201551 sony 12800 200952 25600 201053 409600 201450 pentax 12800 25600 51200 201054 102400 204800 201448 fujifilm 12800 201155

historic conversionedit




historic film speed conversion table 195256






classic camera tessina exposure guide late 1950s


discussed sections definition scales changed several times 1950s early 1960s making necessary convert different scales since system combines newer definitions conversion also necessary comparing older scales scale
picture shows asadin conversion 1952 photography book56 2110° converted instead
classic cameras exposure guides show conversion valid time production example exposure guide classic camera tessina since 1957 2110° related users classic cameras know historic background confused
determining film speededit




61993 method determining speed blackandwhite film


film speed found plot optical density exposure film known d–log curve hurter–driffield curve typically five regions curve base linear region shoulder overexposed region blackandwhite negative film speed point point curve density exceeds base density negative developed point exposure units greater exposure point density greater density point exposure luxs point specified contrast condition satisfied arithmetic speed determined













lx⋅s














displaystyle sfrac 08textlx⋅shmathrm



value rounded nearest standard speed table 61993
determining speed color negative film similar concept complex involves separate curves blue green film processed according film manufacturer’s recommendations rather specified contrast speed color reversal film determined middle rather threshold curve involves separate curves blue green film processed according film manufacturer’s recommendations
applying film speededit
film speed used exposure equations find appropriate exposure parameters four variables available photographer obtain desired effect lighting film speed fnumber aperture size shutter speed exposure time equation expressed ratios taking logarithm base sides addition using apex system every increment doubling exposure increment commonly known stop effective fnumber proportional ratio lens focal length aperture diameter diameter proportional square root aperture area thus lens allows twice much light strike focal plane lens therefore fnumber factor square root approximately also stop lenses typically marked progression
arithmetic speed useful property photographers without equipment taking metered light reading correct exposure usually achieved frontlighted scene bright aperture lens shutter speed reciprocal film speed 1100 second film known sunny rule
exposure indexedit
exposure index refers speed rating assigned particular film shooting situation variance films actual speed used compensate equipment calibration inaccuracies process variables achieve certain effects exposure index simply called speed setting compared speed rating
example photographer rate film push processing obtain printable negatives lowlight conditions film exposed
another example occurs cameras shutter miscalibrated consistently overexposes underexposes film similarly light meter inaccurate adjust rating accordingly order compensate defects consistently produce correctly exposed negativescitation needed
reciprocityedit
